1                    ***** LOWTRAN 7 *****
0 CARD 1  *****    5    3    0    0    0    0    0    0    0    0    0    0    0    .000    .00
0 CARD 2  *****    0    0    0    0    0    0      .000      .000      .000      .000      .000

 ********WARNING (FROM WATVAP) # RELATIVE HUMIDTY =   122.     IS GREATER THAN 100 PERCENT

 ********WARNING (FROM WATVAP) # RELATIVE HUMIDTY =   117.     IS GREATER THAN 100 PERCENT

 ********WARNING (FROM WATVAP) # RELATIVE HUMIDTY =   120.     IS GREATER THAN 100 PERCENT
0 CARD 3  *****      .000      .000      .000      .000      .000      .000    0
0 CARD 4  *****  8333.300**********332500.000
0 PROGRAM WILL COMPUTE RADIANCE                
0 ATMOSPHERIC MODEL
          TEMPERATURE =    1     TROPICAL MODEL      
          WATER VAPOR =    1     TROPICAL MODEL      
          OZONE       =    1     TROPICAL MODEL      
                      M4 =     1 M5 =     1 M6 =     1 MDEF =     1
0 HORIZONTAL PATH
          ALTITUDE =       .000 KM
          RANGE    =       .000 KM
0 FREQUENCY RANGE 
           V1 =       8330.0 CM-1  (      1.20 MICROMETERS)
           V2 =    3333330.0 CM-1  (       .00 MICROMETERS)
           DV =     332500.0 CM-1
1
  ATMOSPHERIC PROFILES

   I     Z       P       T        N2       CNTMSLF MOL SCAT     N-1     O3 (UV)  O2 (UV)
        (KM)    (MB)    (K)            (MOL/CM2 KM)   (-)       (-)  (ATM CM/KM) (ATM CM/KM)

   1      .00 1013.000  299.7  6.792E-01 1.623E+21 9.112E-01 3.284E-04 2.612E-03 3.342E+04
   2     1.00  904.000  293.7  5.576E-01 7.602E+20 8.298E-01 2.393E-04 2.612E-03 2.927E+04
   3     2.00  805.000  287.7  4.560E-01 3.892E+20 7.543E-01 1.828E-04 2.519E-03 2.562E+04
   4     3.00  715.000  283.7  3.674E-01 9.924E+19 6.794E-01 1.175E-04 2.379E-03 2.219E+04
   5     4.00  633.000  277.0  2.985E-01 2.176E+19 6.160E-01 8.030E-05 2.192E-03 1.945E+04
   6     5.00  559.000  270.3  2.415E-01 1.012E+19 5.575E-01 6.629E-05 2.099E-03 1.703E+04
   7     6.00  492.000  263.6  1.942E-01 3.249E+18 5.032E-01 5.362E-05 2.006E-03 1.490E+04
   8     7.00  432.000  257.0  1.556E-01 9.917E+17 4.531E-01 4.474E-05 1.912E-03 1.302E+04
   9     8.00  378.000  250.3  1.239E-01 2.810E+17 4.071E-01 3.819E-05 1.819E-03 1.138E+04
  10     9.00  329.000  243.6  9.777E-02 6.471E+16 3.641E-01 3.298E-05 1.819E-03 9.902E+03
  11    10.00  286.000  237.0  7.699E-02 1.125E+16 3.253E-01 2.885E-05 1.819E-03 8.629E+03
  12    11.00  247.000  230.1  6.003E-02 1.299E+15 2.894E-01 2.537E-05 1.912E-03 7.496E+03
  13    12.00  213.000  223.6  4.660E-02 1.618E+14 2.568E-01 2.242E-05 2.006E-03 6.507E+03
  14    13.00  182.000  217.0  3.559E-02 1.456E+13 2.261E-01 1.971E-05 2.099E-03 5.608E+03
  15    14.00  156.000  210.3  2.740E-02 4.497E+12 2.000E-01 1.742E-05 2.098E-03 4.870E+03
  16    15.00  132.000  203.7  2.058E-02 1.419E+12 1.747E-01 1.522E-05 2.193E-03 4.178E+03
  17    16.00  111.000  197.0  1.530E-02 6.036E+11 1.519E-01 1.323E-05 2.192E-03 3.572E+03
  18    17.00   93.700  194.8  1.109E-02 4.110E+11 1.297E-01 1.129E-05 3.240E-03 3.000E+03
  19    18.00   78.900  198.8  7.627E-03 2.516E+11 1.070E-01 9.319E-06 5.346E-03 2.433E+03
  20    19.00   66.600  202.7  5.278E-03 1.542E+11 8.857E-02 7.715E-06 8.409E-03 1.986E+03
  21    20.00   56.500  206.7  3.689E-03 1.067E+11 7.369E-02 6.418E-06 1.031E-02 1.633E+03
  22    21.00   48.000  210.7  2.587E-03 7.699E+10 6.141E-02 5.349E-06 1.105E-02 1.348E+03
  23    22.00   40.900  214.6  1.827E-03 6.016E+10 5.138E-02 4.475E-06 1.232E-02 1.119E+03
  24    23.00   35.000  217.0  1.316E-03 4.622E+10 4.348E-02 3.787E-06 1.477E-02 9.409E+02
  25    24.00   30.000  219.2  9.524E-04 4.052E+10 3.689E-02 3.214E-06 1.585E-02 7.942E+02
  26    25.00   25.700  221.4  6.885E-04 3.007E+10 3.129E-02 2.726E-06 1.689E-02 6.705E+02
  27    30.00   12.200  232.3  1.444E-04 9.323E+09 1.416E-02 1.233E-06 1.316E-02 2.992E+02
  28    35.00    6.000  243.1  3.262E-05 2.723E+09 6.654E-03 5.797E-07 6.450E-03 1.397E+02
  29    40.00    3.050  254.0  7.892E-06 8.236E+08 3.237E-03 2.820E-07 2.426E-03 6.779E+01
  30    45.00    1.590  264.8  2.015E-06 2.475E+08 1.619E-03 1.410E-07 7.279E-04 3.385E+01
  31    50.00     .854  270.2  5.639E-07 7.597E+07 8.520E-04 7.425E-08 2.384E-04 1.781E+01
  32    70.00     .058  218.9  3.567E-09 3.003E+05 7.143E-05 6.223E-09 2.141E-06 1.492E+00
  33   100.00     .000  190.7  1.089E-13 7.763E-02 4.085E-07 3.558E-11 1.633E-08 6.532E-03
1
  ATMOSPHERIC PROFILES

   I     Z       P       T      CNTMFRN     HNO3    AEROSOL 1 AEROSOL 2 AEROSOL 3 AEROSOL 4 AER1*RH   CIRRUS         RH
        (KM)    (MB)    (K)   MOL/CM2 KM ATM CM/KM   (-)       (-)       (-)       (-)       (-)       (-)      (PERCNT)

   1      .00 1013.000  299.7  6.101E+22 4.556E-06 0.000E+00 0.000E+00 0.000E+00 0.000E+00 0.000E+00 0.000E+00 7.553E+01
   2     1.00  904.000  293.7  3.828E+22 4.945E-06 0.000E+00 0.000E+00 0.000E+00 0.000E+00 0.000E+00 0.000E+00 7.277E+01
   3     2.00  805.000  287.7  2.500E+22 5.227E-06 0.000E+00 0.000E+00 0.000E+00 0.000E+00 0.000E+00 0.000E+00 7.451E+01
   4     3.00  715.000  283.7  1.145E+22 5.374E-06 0.000E+00 0.000E+00 0.000E+00 0.000E+00 0.000E+00 0.000E+00 4.825E+01
   5     4.00  633.000  277.0  4.881E+21 5.464E-06 0.000E+00 0.000E+00 0.000E+00 0.000E+00 0.000E+00 0.000E+00 3.491E+01
   6     5.00  559.000  270.3  3.015E+21 5.436E-06 0.000E+00 0.000E+00 0.000E+00 0.000E+00 0.000E+00 0.000E+00 3.771E+01
   7     6.00  492.000  263.6  1.544E+21 5.585E-06 0.000E+00 0.000E+00 0.000E+00 0.000E+00 0.000E+00 0.000E+00 3.479E+01
   8     7.00  432.000  257.0  7.690E+20 5.710E-06 0.000E+00 0.000E+00 0.000E+00 0.000E+00 0.000E+00 0.000E+00 3.198E+01
   9     8.00  378.000  250.3  3.680E+20 5.659E-06 0.000E+00 0.000E+00 0.000E+00 0.000E+00 0.000E+00 0.000E+00 2.947E+01
  10     9.00  329.000  243.6  1.580E+20 5.571E-06 0.000E+00 0.000E+00 0.000E+00 0.000E+00 0.000E+00 0.000E+00 2.535E+01
  11    10.00  286.000  237.0  5.886E+19 5.660E-06 0.000E+00 0.000E+00 0.000E+00 0.000E+00 0.000E+00 0.000E+00 1.951E+01
  12    11.00  247.000  230.1  1.780E+19 5.845E-06 0.000E+00 0.000E+00 0.000E+00 0.000E+00 0.000E+00 0.000E+00 1.315E+01
  13    12.00  213.000  223.6  5.573E+18 6.189E-06 0.000E+00 0.000E+00 0.000E+00 0.000E+00 0.000E+00 0.000E+00 9.253E+00
  14    13.00  182.000  217.0  1.472E+18 6.240E-06 0.000E+00 0.000E+00 0.000E+00 0.000E+00 0.000E+00 0.000E+00 5.881E+00
  15    14.00  156.000  210.3  7.236E+17 6.659E-06 0.000E+00 0.000E+00 0.000E+00 0.000E+00 0.000E+00 0.000E+00 7.410E+00
  16    15.00  132.000  203.7  3.551E+17 7.896E-06 0.000E+00 0.000E+00 0.000E+00 0.000E+00 0.000E+00 0.000E+00 9.923E+00
  17    16.00  111.000  197.0  2.014E+17 1.119E-05 0.000E+00 0.000E+00 0.000E+00 0.000E+00 0.000E+00 0.000E+00 1.677E+01
  18    17.00   93.700  194.8  1.419E+17 1.699E-05 0.000E+00 0.000E+00 0.000E+00 0.000E+00 0.000E+00 0.000E+00 1.924E+01
  19    18.00   78.900  198.8  9.158E+16 2.257E-05 0.000E+00 0.000E+00 0.000E+00 0.000E+00 0.000E+00 0.000E+00 8.321E+00
  20    19.00   66.600  202.7  5.934E+16 2.808E-05 0.000E+00 0.000E+00 0.000E+00 0.000E+00 0.000E+00 0.000E+00 3.752E+00
  21    20.00   56.500  206.7  4.107E+16 3.095E-05 0.000E+00 0.000E+00 0.000E+00 0.000E+00 0.000E+00 0.000E+00 1.818E+00
  22    21.00   48.000  210.7  2.908E+16 3.034E-05 0.000E+00 0.000E+00 0.000E+00 0.000E+00 0.000E+00 0.000E+00 9.217E-01
  23    22.00   40.900  214.6  2.150E+16 2.805E-05 0.000E+00 0.000E+00 0.000E+00 0.000E+00 0.000E+00 0.000E+00 5.033E-01
  24    23.00   35.000  217.0  1.595E+16 2.496E-05 0.000E+00 0.000E+00 0.000E+00 0.000E+00 0.000E+00 0.000E+00 3.313E-01
  25    24.00   30.000  219.2  1.267E+16 2.155E-05 0.000E+00 0.000E+00 0.000E+00 0.000E+00 0.000E+00 0.000E+00 2.401E-01
  26    25.00   25.700  221.4  9.258E+15 1.756E-05 0.000E+00 0.000E+00 0.000E+00 0.000E+00 0.000E+00 0.000E+00 1.611E-01
  27    30.00   12.200  232.3  2.333E+15 5.295E-06 0.000E+00 0.000E+00 0.000E+00 0.000E+00 0.000E+00 0.000E+00 2.817E-02
  28    35.00    6.000  243.1  5.924E+14 1.091E-06 0.000E+00 0.000E+00 0.000E+00 0.000E+00 0.000E+00 0.000E+00 5.440E-03
  29    40.00    3.050  254.0  1.585E+14 1.725E-07 0.000E+00 0.000E+00 0.000E+00 0.000E+00 0.000E+00 0.000E+00 1.173E-03
  30    45.00    1.590  264.8  4.345E+13 1.959E-08 0.000E+00 0.000E+00 0.000E+00 0.000E+00 0.000E+00 0.000E+00 2.777E-04
  31    50.00     .854  270.2  1.267E+13 4.729E-09 0.000E+00 0.000E+00 0.000E+00 0.000E+00 0.000E+00 0.000E+00 1.041E-04
  32    70.00     .058  218.9  6.679E+10 2.336E-10 0.000E+00 0.000E+00 0.000E+00 0.000E+00 0.000E+00 0.000E+00 6.767E-04
  33   100.00     .000  190.7  1.942E+05 1.115E-12 0.000E+00 0.000E+00 0.000E+00 0.000E+00 0.000E+00 0.000E+00 1.583E-05
1
  ATMOSPHERIC PROFILES

  (IF A MOLECULE HAS MORE THAN ONE BAND, THEN THE DATA FOR THE FIRST BAND ARE SHOWN.)

   I      Z       P       T      H2O      O3       CO2      CO       CH4      N2O      O2       NH3      NO       NO2      SO2
         (KM)    (MB)    (K) G/CM**2/KM  (                      ATM CM/KM                                                     )
   1      .00 1013.000  299.7  1.84E+00 2.30E-03 3.70E+01 1.28E-02 1.61E-01 2.67E-02 1.44E+04 4.95E-05 2.85E-05 2.10E-06 2.44E-05
   2     1.00  904.000  293.7  1.13E+00 2.25E-03 2.99E+01 1.05E-02 1.34E-01 2.37E-02 1.22E+04 4.04E-05 2.42E-05 1.83E-06 2.01E-05
   3     2.00  805.000  287.7  7.29E-01 2.13E-03 2.40E+01 8.54E-03 1.11E-01 2.11E-02 1.03E+04 3.04E-05 2.05E-05 1.59E-06 1.56E-05
   4     3.00  715.000  283.7  3.29E-01 1.95E-03 1.93E+01 6.85E-03 9.14E-02 1.84E-02 8.38E+03 2.02E-05 1.73E-05 1.36E-06 1.11E-05
   5     4.00  633.000  277.0  1.38E-01 1.76E-03 1.53E+01 5.60E-03 7.52E-02 1.63E-02 7.06E+03 1.23E-05 1.45E-05 1.18E-06 7.69E-06
   6     5.00  559.000  270.3  8.39E-02 1.66E-03 1.21E+01 4.66E-03 6.17E-02 1.44E-02 5.93E+03 6.99E-06 1.22E-05 1.01E-06 5.59E-06
   7     6.00  492.000  263.6  4.23E-02 1.56E-03 9.43E+00 3.84E-03 5.03E-02 1.27E-02 4.95E+03 3.98E-06 1.01E-05 8.67E-07 4.12E-06
   8     7.00  432.000  257.0  2.07E-02 1.46E-03 7.35E+00 3.08E-03 4.08E-02 1.11E-02 4.12E+03 2.14E-06 8.43E-06 7.41E-07 3.15E-06
   9     8.00  378.000  250.3  9.77E-03 1.36E-03 5.69E+00 2.42E-03 3.29E-02 9.73E-03 3.42E+03 1.10E-06 6.97E-06 6.30E-07 2.44E-06
  10     9.00  329.000  243.6  4.13E-03 1.33E-03 4.36E+00 1.83E-03 2.63E-02 8.46E-03 2.81E+03 5.01E-07 5.72E-06 5.38E-07 1.97E-06
  11    10.00  286.000  237.0  1.51E-03 1.30E-03 3.34E+00 1.37E-03 2.09E-02 7.32E-03 2.31E+03 2.10E-07 4.69E-06 4.65E-07 1.62E-06
  12    11.00  247.000  230.1  4.50E-04 1.34E-03 2.52E+00 1.00E-03 1.65E-02 6.25E-03 1.88E+03 8.69E-08 3.81E-06 4.29E-07 1.37E-06
  13    12.00  213.000  223.6  1.39E-04 1.38E-03 1.89E+00 7.05E-04 1.29E-02 5.31E-03 1.53E+03 3.85E-08 3.08E-06 4.31E-07 1.16E-06
  14    13.00  182.000  217.0  3.60E-05 1.41E-03 1.40E+00 4.59E-04 9.91E-03 4.47E-03 1.22E+03 1.44E-08 2.46E-06 5.03E-07 1.01E-06
  15    14.00  156.000  210.3  1.74E-05 1.38E-03 1.04E+00 2.91E-04 7.66E-03 3.78E-03 9.85E+02 3.90E-09 1.95E-06 7.03E-07 8.97E-07
  16    15.00  132.000  203.7  8.38E-06 1.40E-03 7.58E-01 1.79E-04 5.78E-03 3.13E-03 7.75E+02 1.16E-09 1.47E-06 1.31E-06 7.91E-07
  17    16.00  111.000  197.0  4.66E-06 1.36E-03 5.44E-01 1.09E-04 4.32E-03 2.57E-03 6.06E+02 4.03E-10 1.09E-06 1.98E-06 6.81E-07
  18    17.00   93.700  194.8  3.27E-06 1.91E-03 4.04E-01 6.69E-05 3.19E-03 2.01E-03 4.38E+02 1.55E-10 7.95E-07 2.57E-06 5.24E-07
  19    18.00   78.900  198.8  2.15E-06 2.85E-03 3.11E-01 3.77E-05 2.30E-03 1.47E-03 2.77E+02 6.92E-11 5.76E-07 2.95E-06 3.57E-07
  20    19.00   66.600  202.7  1.41E-06 4.06E-03 2.40E-01 2.13E-05 1.66E-03 1.06E-03 1.77E+02 3.01E-11 4.48E-07 3.14E-06 2.28E-07
  21    20.00   56.500  206.7  9.94E-07 4.52E-03 1.87E-01 1.33E-05 1.19E-03 7.59E-04 1.14E+02 1.36E-11 3.60E-07 3.22E-06 1.42E-07
  22    21.00   48.000  210.7  7.15E-07 4.40E-03 1.46E-01 8.94E-06 8.46E-04 5.42E-04 7.41E+01 8.05E-12 3.02E-07 3.19E-06 9.19E-08
  23    22.00   40.900  214.6  5.37E-07 4.48E-03 1.14E-01 6.54E-06 5.97E-04 3.92E-04 4.86E+01 5.40E-12 2.60E-07 3.07E-06 6.13E-08
  24    23.00   35.000  217.0  4.03E-07 4.95E-03 8.93E-02 5.18E-06 4.25E-04 2.97E-04 3.30E+01 3.76E-12 2.39E-07 2.92E-06 4.44E-08
  25    24.00   30.000  219.2  3.23E-07 4.91E-03 6.99E-02 4.16E-06 3.05E-04 2.25E-04 2.27E+01 2.58E-12 2.35E-07 2.77E-06 3.26E-08
  26    25.00   25.700  221.4  2.38E-07 4.83E-03 5.47E-02 3.38E-06 2.19E-04 1.67E-04 1.55E+01 1.67E-12 2.80E-07 2.70E-06 2.40E-08
  27    30.00   12.200  232.3  6.29E-08 2.58E-03 1.67E-02 1.10E-06 5.15E-05 4.38E-05 2.51E+00 2.24E-13 3.14E-07 1.50E-06 6.30E-09
  28    35.00    6.000  243.1  1.67E-08 8.80E-04 5.41E-03 3.66E-07 1.21E-05 9.88E-06 4.44E-01 1.78E-14 3.02E-07 6.32E-07 1.97E-09
  29    40.00    3.050  254.0  4.65E-09 2.34E-04 1.85E-03 1.29E-07 2.80E-06 1.74E-06 8.49E-02 8.44E-16 1.65E-07 1.31E-07 8.71E-10
  30    45.00    1.590  264.8  1.33E-09 5.05E-05 6.56E-04 4.90E-08 5.77E-07 2.30E-07 1.73E-02 2.64E-17 6.23E-08 1.44E-08 5.28E-10
  31    50.00     .854  270.2  3.97E-10 1.24E-05 2.38E-04 2.03E-08 1.14E-07 2.81E-08 4.10E-03 2.05E-18 2.10E-08 2.29E-09 3.83E-10
  32    70.00     .058  218.9  1.91E-12 4.82E-08 2.05E-06 9.73E-10 9.14E-10 2.51E-10 2.63E-05 5.92E-21 4.32E-10 3.42E-11 2.29E-11
  33   100.00     .000  190.7  5.62E-18 4.80E-11 1.45E-10 9.63E-12 8.96E-14 6.36E-14 3.20E-10 2.44E-25 2.57E-11 1.75E-14 2.70E-16
0HORIZONTAL PATH AT ALTITUDE =       .000 KM WITH RANGE =       .000 KM, MODEL =   1




 EQUIVALENT SEA LEVEL TOTAL ABSORBER AMOUNTS

                 HNO3      O3 UV       CNTMSLF1    CNTMSLF2   CNTMFRN
               (ATM CM)   (ATM CM)     (MOL CM-2)  (MOL CM-2)  (MOL CM-2)  (MOL CM-2)

             0.000E+00   0.000E+00   0.000E+00   0.000E+00   0.000E+00


              N2 CONT    MOL SCAT       AER 1       AER 2       AER 3       AER 4     CIRRUS      MEAN RH
                                                                                                  (PRCNT)

             0.000E+00   0.000E+00   0.000E+00   0.000E+00   0.000E+00   0.000E+00   0.000E+00         .00


                 H2O        O3          CO2         CO          CH4         N2O          O2
              (G/CM**2)     (                           ATM CM                            )

             0.000E+00   0.000E+00   0.000E+00   0.000E+00   0.000E+00   0.000E+00   0.000E+00

                 NH3        NO          NO2         SO2
                 (               ATM CM               )

             0.000E+00   0.000E+00   0.000E+00   0.000E+00
1                    RADIANCE(WATTS/CM2-STER-XXX)
0   FREQ WAVLEN   ATMOS RADIANCE       INTEGRAL TOTAL
  (CM-1) (MICRN)  (CM-1)    (MICRN)   (CM-1)    TRANS

   8330.   1.200  0.00E+00  0.00E+00  0.00E+00   1.0000
 340830.    .029  0.00E+00  0.00E+00  0.00E+00   1.0000
0INTEGRATED ABSORPTION FROM 8330 TO***** CM-1 =       .00 CM-1
 AVERAGE TRANSMITTANCE =1.0000

0INTEGRATED RADIANCE =  0.000E+00 WATTS CM-2 STER-1
 MINIMUM RADIANCE    =  0.000E+00 WATTS CM-2 STER-1 (CM-1)-1 AT   340830.0 CM-1
 MAXIMUM RADIANCE    =  0.000E+00 WATTS CM-2 STER-1 (CM-1)-1 AT   340830.0 CM-1
 BOUNDARY TEMPERATURE =        .00 K
 BOUNDARY EMISSIVITY =       1.000
0 CARD 5 *****    0
